
SYMMETRICAL COMPONENT PHASE-PHASE VOLTAGES BY BUS (for 3-phase buses)

Bus        Mag:   V1 (kV)    p.u.     V2 (kV)   %V2/V1    V0 (kV)    %V0/V1

sourcebus     11.54      1.049   0.001087   0.009417 1.438E-015 1.246E-014
1            0.4361      1.048  0.0001589    0.03643 5.859E-017 1.344E-014
2             0.436      1.048   0.000161    0.03692 4.494E-017 1.031E-014
3             0.436      1.048  0.0001612    0.03697 5.859E-017 1.344E-014
4             0.436      1.048  0.0001614    0.03702 7.105E-017 1.63E-014
5             0.436      1.048  0.0001616    0.03707 5.684E-017 1.304E-014
6             0.436      1.048  0.0001619    0.03714 4.263E-017 9.779E-015
7            0.4353      1.046  0.0001922    0.04415 5.859E-017 1.346E-014
8            0.4353      1.046  0.0001939    0.04455 4.263E-017 9.794E-015
9            0.4353      1.046  0.0001953    0.04488 4.263E-017 9.794E-015
10           0.4353      1.046  0.0001966    0.04517 4.494E-017 1.032E-014
11           0.4352      1.046  0.0001976     0.0454 4.263E-017 9.795E-015
12           0.4352      1.046  0.0001985    0.04561 5.684E-017 1.306E-014
13           0.4352      1.046  0.0001991    0.04574 5.684E-017 1.306E-014
14           0.4352      1.046  0.0002005    0.04606 4.263E-017 9.796E-015
15            0.435      1.046  0.0002123    0.04881 7.246E-017 1.666E-014
16            0.435      1.046  0.0002123    0.04881 7.653E-017 1.759E-014
17           0.4348      1.045  0.0002277    0.05238 5.684E-017 1.307E-014
18            0.435      1.046  0.0002123    0.04881 7.246E-017 1.666E-014
19           0.4348      1.045  0.0002288    0.05263 5.859E-017 1.348E-014
20            0.435      1.046  0.0002123    0.04881 7.653E-017 1.759E-014
21           0.4348      1.045  0.0002301    0.05292 4.494E-017 1.034E-014
22            0.435      1.046  0.0002123    0.04881 4.494E-017 1.033E-014
23           0.4347      1.045  0.0002321    0.05339 5.684E-017 1.308E-014
24            0.435      1.046  0.0002123    0.04881 4.263E-017  9.8E-015
25           0.4347      1.045  0.0002358    0.05425 4.494E-017 1.034E-014
26            0.435      1.046  0.0002123    0.04881 3.178E-017 7.305E-015
27           0.4346      1.045   0.000241    0.05545 5.859E-017 1.348E-014
28           0.4341      1.043  0.0002794    0.06436 4.494E-017 1.035E-014
29            0.435      1.046  0.0002123    0.04881 3.178E-017 7.305E-015
30           0.4346      1.045  0.0002421    0.05571 5.684E-017 1.308E-014
31           0.4346      1.045  0.0002421     0.0557 4.263E-017 9.809E-015
32           0.4339      1.043  0.0002911    0.06709 5.859E-017 1.35E-014
33            0.435      1.046  0.0002123    0.04881 2.842E-017 6.534E-015
34           0.4346      1.045  0.0002451    0.05638 4.494E-017 1.034E-014
35           0.4346      1.045  0.0002422    0.05571 5.684E-017 1.308E-014
36           0.4339      1.043  0.0003189    0.07349 5.859E-017 1.35E-014
37           0.4334      1.042  0.0003137    0.07236 6.355E-017 1.466E-014
38            0.435      1.046  0.0002123    0.04881 7.105E-017 1.633E-014
39           0.4346      1.045  0.0002422    0.05573 5.859E-017 1.348E-014
40           0.4339      1.043  0.0003199    0.07372 5.684E-017 1.31E-014
41           0.4339      1.043  0.0003234    0.07453 5.684E-017 1.31E-014
42           0.4331      1.041  0.0003302    0.07624 5.859E-017 1.353E-014
43           0.4334      1.042  0.0003137    0.07236 4.263E-017 9.836E-015
44            0.435      1.046  0.0002123    0.04881 4.494E-017 1.033E-014
45           0.4346      1.045  0.0002423    0.05574 4.494E-017 1.034E-014
46           0.4339      1.043  0.0003203    0.07383 4.263E-017 9.826E-015
47           0.4339      1.043  0.0003343    0.07706 5.684E-017 1.31E-014
48           0.4329      1.041  0.0003431    0.07927 5.684E-017 1.313E-014
49           0.4334      1.042  0.0003137    0.07236 4.494E-017 1.037E-014
50            0.435      1.046  0.0002123    0.04881 7.105E-017 1.633E-014
51           0.4346      1.045  0.0002425    0.05578 7.105E-017 1.635E-014
52           0.4339      1.043  0.0003208    0.07394 7.105E-017 1.638E-014
53           0.4328       1.04   0.000345    0.07971 5.859E-017 1.354E-014
54           0.4329      1.041  0.0003431    0.07927 4.263E-017 9.849E-015
55           0.4334      1.042  0.0003137    0.07236 5.859E-017 1.352E-014
56            0.435      1.046  0.0002123    0.04881 4.263E-017  9.8E-015
57           0.4346      1.045  0.0002426    0.05582 7.246E-017 1.667E-014
58           0.4339      1.043  0.0003212    0.07404 7.105E-017 1.638E-014
59           0.4327       1.04  0.0003537    0.08174 5.859E-017 1.354E-014
60           0.4329      1.041  0.0003431    0.07927 4.263E-017 9.849E-015
61           0.4334      1.042  0.0003137    0.07236 5.859E-017 1.352E-014
62            0.435      1.046  0.0002123    0.04881 4.263E-017  9.8E-015
63           0.4346      1.045  0.0002434    0.05599 5.684E-017 1.308E-014
64           0.4339      1.043  0.0003215     0.0741 5.684E-017 1.31E-014
65           0.4326       1.04  0.0003549    0.08204 4.263E-017 9.854E-015
66           0.4326       1.04  0.0003722    0.08604 6.355E-017 1.469E-014
67           0.4329      1.041  0.0003431    0.07927 5.859E-017 1.354E-014
68           0.4334      1.042  0.0003137    0.07236 5.124E-017 1.182E-014
69            0.435      1.046  0.0002123    0.04881 5.684E-017 1.307E-014
70           0.4346      1.045  0.0002463    0.05666 7.653E-017 1.761E-014
71           0.4339      1.043  0.0003221    0.07423 4.494E-017 1.036E-014
72           0.4323      1.039  0.0003698    0.08555 5.684E-017 1.315E-014
73           0.4326       1.04  0.0003776    0.08729 5.859E-017 1.354E-014
74           0.4326       1.04  0.0003776    0.08729 5.859E-017 1.354E-014
75           0.4329      1.041  0.0003431    0.07927 4.263E-017 9.849E-015
76           0.4334      1.042  0.0003137    0.07236 5.684E-017 1.311E-014
77            0.435      1.046  0.0002123    0.04881 5.859E-017 1.347E-014
78           0.4339      1.043  0.0003248    0.07485 5.684E-017 1.31E-014
79           0.4321      1.039   0.000375    0.08677 4.263E-017 9.866E-015
80           0.4329      1.041  0.0003431    0.07927 5.124E-017 1.184E-014
81           0.4334      1.042  0.0003137    0.07236 5.859E-017 1.352E-014
82            0.435      1.046  0.0002123    0.04881 3.178E-017 7.305E-015
83           0.4339      1.043   0.000335    0.07723 4.263E-017 9.826E-015
84           0.4321      1.039  0.0003761    0.08704 7.246E-017 1.677E-014
85           0.4329      1.041  0.0003431    0.07927 5.684E-017 1.313E-014
86           0.4334      1.042  0.0003137    0.07236 7.246E-017 1.672E-014
87            0.435      1.046  0.0002123    0.04881 4.494E-017 1.033E-014
88            0.432      1.039  0.0003784    0.08758 7.653E-017 1.771E-014
89           0.4329      1.041  0.0003431    0.07927 5.684E-017 1.313E-014
90           0.4334      1.042  0.0003137    0.07236 5.859E-017 1.352E-014
91            0.435      1.046  0.0002123    0.04881 7.105E-017 1.633E-014
92            0.432      1.038  0.0003806    0.08809 5.859E-017 1.356E-014
93           0.4334      1.042  0.0003137    0.07236 7.105E-017 1.639E-014
94            0.435      1.046  0.0002123    0.04881 5.859E-017 1.347E-014
95            0.432      1.038  0.0003818    0.08839 3.178E-017 7.356E-015
96           0.4334      1.042  0.0003137    0.07236 3.178E-017 7.331E-015
97            0.435      1.046  0.0002123    0.04881 5.684E-017 1.307E-014
98           0.4319      1.038  0.0003826    0.08859 5.684E-017 1.316E-014
99           0.4334      1.042  0.0003137    0.07236 2.842E-017 6.557E-015
100           0.435      1.046  0.0002123    0.04881 5.684E-017 1.307E-014
101          0.4319      1.038  0.0003838    0.08886 2.842E-017 6.58E-015
102          0.4334      1.042  0.0003137    0.07236 2.842E-017 6.557E-015
103           0.435      1.046  0.0002123    0.04881 4.494E-017 1.033E-014
104          0.4319      1.038  0.0003837    0.08885 3.178E-017 7.357E-015
105          0.4319      1.038  0.0003845    0.08902 2.842E-017 6.581E-015
106          0.4334      1.042  0.0003137    0.07236 7.105E-017 1.639E-014
107          0.4319      1.038  0.0003837    0.08883 5.684E-017 1.316E-014
108          0.4319      1.038  0.0003849    0.08911 4.494E-017 1.041E-014
109          0.4334      1.042  0.0003137    0.07236 7.246E-017 1.672E-014
110          0.4319      1.038  0.0003836    0.08882 4.494E-017 1.04E-014
111          0.4315      1.037  0.0004005    0.09282 2.842E-017 6.587E-015
112          0.4334      1.042  0.0003137    0.07236 5.684E-017 1.311E-014
113          0.4319      1.038  0.0003835    0.08879 5.859E-017 1.357E-014
114          0.4315      1.037  0.0004021     0.0932 7.246E-017 1.679E-014
115          0.4334      1.042  0.0003137    0.07236 5.859E-017 1.352E-014
116          0.4319      1.038  0.0003833    0.08876 5.859E-017 1.357E-014
117          0.4315      1.037  0.0004019    0.09314 4.263E-017 9.881E-015
118          0.4314      1.037   0.000409    0.09481 4.494E-017 1.042E-014
119          0.4334      1.042  0.0003137    0.07236 4.263E-017 9.836E-015
120          0.4319      1.038  0.0003832    0.08873 5.859E-017 1.357E-014
121          0.4315      1.037  0.0004019    0.09314 5.859E-017 1.358E-014
122          0.4315      1.037  0.0004017    0.09311 5.859E-017 1.358E-014
123          0.4312      1.037  0.0004217    0.09779 4.263E-017 9.887E-015
124          0.4334      1.042  0.0003137    0.07236 4.263E-017 9.836E-015
125          0.4319      1.038  0.0003831     0.0887 2.842E-017 6.581E-015
126          0.4315      1.037  0.0004019    0.09314 5.859E-017 1.358E-014
127          0.4315      1.037  0.0004011    0.09297 5.859E-017 1.358E-014
128          0.4311      1.036  0.0004275    0.09915 4.494E-017 1.042E-014
129          0.4334      1.042  0.0003137    0.07236 2.842E-017 6.557E-015
130          0.4319      1.038  0.0003829    0.08866 4.494E-017 1.04E-014
131          0.4315      1.037  0.0004019    0.09314 4.263E-017 9.881E-015
132          0.4315      1.037  0.0004055    0.09398 5.684E-017 1.317E-014
133          0.4315      1.037  0.0003978    0.09219 5.859E-017 1.358E-014
134          0.4311      1.036  0.0004292    0.09956 7.246E-017 1.681E-014
135          0.4334      1.042  0.0003137    0.07236 4.494E-017 1.037E-014
136          0.4319      1.038  0.0003828    0.08863 5.684E-017 1.316E-014
137          0.4315      1.037  0.0004019    0.09314 5.859E-017 1.358E-014
138          0.4315      1.037  0.0004059    0.09407 5.684E-017 1.317E-014
139          0.4315      1.037  0.0003953    0.09161 2.842E-017 6.587E-015
140          0.4311      1.036  0.0004312        0.1 7.105E-017 1.648E-014
141          0.4334      1.042  0.0003137    0.07236 5.684E-017 1.311E-014
142          0.4319      1.038  0.0003825    0.08857 5.859E-017 1.357E-014
143          0.4315      1.037  0.0004019    0.09314 4.494E-017 1.042E-014
144          0.4315      1.037  0.0004062    0.09415 4.263E-017 9.881E-015
145          0.4315      1.037  0.0003936    0.09122 7.105E-017 1.647E-014
146           0.431      1.036   0.000433     0.1005 5.684E-017 1.319E-014
147          0.4334      1.042  0.0003137    0.07236 3.178E-017 7.331E-015
148          0.4319      1.038  0.0003814     0.0883 5.124E-017 1.186E-014
149          0.4315      1.037  0.0004019    0.09314 7.246E-017 1.679E-014
150          0.4315      1.037  0.0004065    0.09423 5.684E-017 1.317E-014
151          0.4315      1.037  0.0003917    0.09078 7.246E-017 1.679E-014
152          0.4314      1.037  0.0004137    0.09589 5.684E-017 1.318E-014
153           0.431      1.036  0.0004352      0.101 4.263E-017 9.892E-015
154          0.4334      1.042  0.0003137    0.07236 4.263E-017 9.836E-015
155          0.4319      1.038  0.0003811    0.08825 4.263E-017 9.871E-015
156          0.4315      1.037  0.0004019    0.09314 5.859E-017 1.358E-014
157          0.4315      1.037   0.000407    0.09434 5.684E-017 1.317E-014
158          0.4314      1.037  0.0003866    0.08961 5.684E-017 1.318E-014
159          0.4314      1.037   0.000415    0.09619 7.105E-017 1.647E-014
160           0.431      1.036  0.0004358     0.1011 4.494E-017 1.043E-014
161          0.4334      1.042  0.0003137    0.07236 5.684E-017 1.311E-014
162          0.4319      1.038  0.0004056    0.09392 4.494E-017 1.041E-014
163          0.4319      1.038  0.0003799    0.08797 4.494E-017 1.041E-014
164          0.4315      1.037  0.0004019    0.09314 7.105E-017 1.647E-014
165          0.4315      1.037  0.0004076    0.09447 7.246E-017 1.679E-014
166          0.4314      1.037  0.0003849    0.08921 4.494E-017 1.042E-014
167          0.4314      1.037  0.0004161    0.09646 7.246E-017 1.68E-014
168          0.4309      1.036  0.0004394      0.102 7.105E-017 1.649E-014
169          0.4334      1.042  0.0003137    0.07236 4.263E-017 9.836E-015
170          0.4318      1.038  0.0004104    0.09503 4.494E-017 1.041E-014
171          0.4319      1.038  0.0003784    0.08761 5.684E-017 1.316E-014
172          0.4315      1.037  0.0004019    0.09314 5.859E-017 1.358E-014
173          0.4315      1.037   0.000408    0.09457 4.494E-017 1.042E-014
174          0.4314      1.037  0.0003849    0.08921 5.859E-017 1.358E-014
175          0.4314      1.037    0.00036    0.08344 7.105E-017 1.647E-014
176          0.4314      1.037  0.0004166    0.09657 4.263E-017 9.882E-015
177          0.4309      1.036  0.0004414     0.1024 5.859E-017 1.36E-014
178          0.4318      1.038  0.0004205    0.09737 4.263E-017 9.872E-015
179          0.4319      1.038  0.0003787     0.0877 5.684E-017 1.316E-014
180          0.4319      1.038  0.0003642    0.08433 5.684E-017 1.316E-014
181          0.4315      1.037  0.0004019    0.09314 4.263E-017 9.881E-015
182          0.4315      1.037  0.0004085    0.09468 5.684E-017 1.317E-014
183          0.4314      1.037  0.0003849    0.08921 7.246E-017 1.68E-014
184          0.4314      1.037  0.0003573    0.08281 5.859E-017 1.358E-014
185          0.4314      1.037  0.0004177    0.09681 4.263E-017 9.882E-015
186          0.4309      1.036  0.0004429     0.1028 4.263E-017 9.894E-015
187          0.4319      1.038  0.0003802    0.08805 7.246E-017 1.678E-014
188          0.4318      1.038  0.0003058    0.07082 5.859E-017 1.357E-014
189          0.4315      1.037  0.0004019    0.09314 7.246E-017 1.679E-014
190          0.4315      1.037   0.000409    0.09479 5.859E-017 1.358E-014
191          0.4314      1.037  0.0003849    0.08921 4.263E-017 9.881E-015
192          0.4314      1.037  0.0003849    0.08921 4.494E-017 1.042E-014
193          0.4314      1.037  0.0003547    0.08221 5.684E-017 1.318E-014
194          0.4314      1.037  0.0004203    0.09743 7.105E-017 1.647E-014
195          0.4309      1.036  0.0004443     0.1031 4.494E-017 1.043E-014
196          0.4319      1.038   0.000383    0.08868 4.263E-017 9.872E-015
197          0.4318      1.038  0.0003001    0.06951 4.263E-017 9.873E-015
198          0.4318      1.038  0.0003025    0.07006 7.105E-017 1.646E-014
199          0.4315      1.037  0.0004019    0.09314 5.684E-017 1.317E-014
200          0.4314      1.037  0.0004095    0.09491 5.684E-017 1.317E-014
201          0.4314      1.037  0.0003849    0.08921 4.494E-017 1.042E-014
202          0.4314      1.037  0.0003849    0.08921 4.263E-017 9.881E-015
203          0.4314      1.037  0.0003526    0.08173 4.494E-017 1.042E-014
204          0.4314      1.037  0.0004219     0.0978 4.494E-017 1.042E-014
205          0.4309      1.036   0.000446     0.1035 5.684E-017 1.319E-014
206          0.4318      1.038  0.0003859    0.08935 5.859E-017 1.357E-014
207          0.4319      1.038  0.0003832    0.08873 4.263E-017 9.872E-015
208          0.4318      1.038  0.0002858     0.0662 5.859E-017 1.357E-014
209          0.4318      1.038  0.0003021    0.06995 5.684E-017 1.316E-014
210          0.4315      1.037  0.0004019    0.09314 4.494E-017 1.042E-014
211          0.4314      1.037  0.0004103     0.0951 4.494E-017 1.042E-014
212          0.4314      1.037  0.0003849    0.08921 7.105E-017 1.647E-014
213          0.4314      1.037  0.0003509    0.08134 5.859E-017 1.358E-014
214          0.4314      1.037   0.000423    0.09805 4.263E-017 9.882E-015
215          0.4308      1.036  0.0004491     0.1042 2.842E-017 6.597E-015
216          0.4318      1.038  0.0003969     0.0919 2.842E-017 6.582E-015
217          0.4319      1.038  0.0003836    0.08883 3.178E-017 7.358E-015
218          0.4318      1.038  0.0003017    0.06987 5.859E-017 1.357E-014
219          0.4315      1.037  0.0004019    0.09314 5.859E-017 1.358E-014
220          0.4314      1.037  0.0004125    0.09561 2.842E-017 6.588E-015
221          0.4314      1.037  0.0003849    0.08921 7.246E-017 1.68E-014
222          0.4314      1.037  0.0003474    0.08053 4.263E-017 9.882E-015
223          0.4314      1.037  0.0004252    0.09855 4.494E-017 1.042E-014
224          0.4308      1.036  0.0004518     0.1049 4.494E-017 1.043E-014
225          0.4318      1.038  0.0004023    0.09316 4.494E-017 1.041E-014
226          0.4319      1.038  0.0003838    0.08886 5.859E-017 1.357E-014
227          0.4318      1.038  0.0003014     0.0698 7.246E-017 1.678E-014
228          0.4314      1.037  0.0004127    0.09565 4.263E-017 9.881E-015
229          0.4314      1.037  0.0003849    0.08921 5.684E-017 1.318E-014
230          0.4314      1.037  0.0003447    0.07989 4.263E-017 9.882E-015
231          0.4314      1.037  0.0004262     0.0988 7.105E-017 1.647E-014
232          0.4307      1.035  0.0004537     0.1053 7.653E-017 1.777E-014
233          0.4318      1.038  0.0004363      0.101 2.842E-017 6.582E-015
234          0.4319      1.038  0.0003838    0.08886 5.859E-017 1.357E-014
235          0.4318      1.038  0.0003009    0.06969 5.684E-017 1.316E-014
236          0.4314      1.037  0.0004128    0.09567 4.263E-017 9.881E-015
237          0.4314      1.037  0.0003849    0.08921 5.684E-017 1.318E-014
238          0.4314      1.037  0.0003428    0.07945 5.684E-017 1.318E-014
239          0.4314      1.037   0.000427    0.09898 4.494E-017 1.042E-014
240          0.4307      1.035  0.0004549     0.1056 4.494E-017 1.043E-014
241          0.4318      1.038  0.0004443     0.1029 5.859E-017 1.357E-014
242          0.4318      1.038  0.0003004    0.06957 7.246E-017 1.678E-014
243          0.4314      1.037  0.0004129    0.09569 4.263E-017 9.881E-015
244          0.4314      1.037  0.0003849    0.08921 4.263E-017 9.881E-015
245          0.4314      1.037  0.0003408    0.07901 5.684E-017 1.318E-014
246          0.4314      1.037  0.0004358      0.101 5.859E-017 1.358E-014
247          0.4307      1.035  0.0004576     0.1062 5.684E-017 1.32E-014
248          0.4318      1.038  0.0004568     0.1058 3.178E-017 7.36E-015
249          0.4318      1.038  0.0004568     0.1058 3.178E-017 7.36E-015
250          0.4318      1.038  0.0002996    0.06938 5.684E-017 1.316E-014
251          0.4314      1.037  0.0004129    0.09571 4.494E-017 1.042E-014
252          0.4314      1.037  0.0003849    0.08921 4.263E-017 9.881E-015
253          0.4314      1.037  0.0003381    0.07836 4.494E-017 1.042E-014
254          0.4314      1.037  0.0004384     0.1016 5.684E-017 1.318E-014
255          0.4307      1.035  0.0004642     0.1078 5.684E-017 1.32E-014
256          0.4307      1.035   0.000459     0.1066 7.246E-017 1.683E-014
257          0.4318      1.038  0.0002966    0.06869 5.684E-017 1.316E-014
258          0.4314      1.037   0.000413    0.09574 7.105E-017 1.647E-014
259          0.4314      1.037  0.0003849    0.08921 7.246E-017 1.68E-014
260          0.4314      1.037  0.0003276    0.07593 7.246E-017 1.68E-014
261          0.4314      1.037   0.000439     0.1018 5.859E-017 1.358E-014
262          0.4307      1.035  0.0004651      0.108 5.684E-017 1.32E-014
263          0.4306      1.035  0.0004641     0.1078 7.105E-017 1.65E-014
264          0.4318      1.038   0.000282    0.06532 7.105E-017 1.646E-014
265          0.4314      1.037  0.0004132    0.09578 5.684E-017 1.318E-014
266          0.4314      1.037  0.0003849    0.08921 3.178E-017 7.365E-015
267          0.4314      1.037  0.0003251    0.07537 5.859E-017 1.358E-014
268          0.4314      1.037  0.0004465     0.1035 5.684E-017 1.318E-014
269          0.4314      1.037  0.0004393     0.1018 4.494E-017 1.042E-014
270          0.4307      1.035  0.0004655     0.1081 4.263E-017 9.899E-015
271          0.4306      1.035  0.0004514     0.1048 5.859E-017 1.361E-014
272          0.4306      1.035  0.0004666     0.1084 4.263E-017 9.902E-015
273          0.4314      1.037  0.0004135    0.09583 5.684E-017 1.318E-014
274          0.4314      1.037  0.0003849    0.08921 4.263E-017 9.881E-015
275          0.4314      1.037   0.000324    0.07511 5.859E-017 1.358E-014
276          0.4314      1.037  0.0004541     0.1053 7.105E-017 1.647E-014
277          0.4314      1.037  0.0004396     0.1019 4.494E-017 1.042E-014
278          0.4307      1.035   0.000466     0.1082 5.859E-017 1.36E-014
279          0.4306      1.035  0.0004504     0.1046 2.842E-017 6.601E-015
280          0.4305      1.035  0.0004758     0.1105 5.859E-017 1.361E-014
281          0.4314      1.037  0.0004143    0.09603 5.859E-017 1.358E-014
282          0.4314      1.037  0.0003849    0.08921 4.494E-017 1.042E-014
283          0.4314      1.037  0.0003233    0.07494 4.494E-017 1.042E-014
284          0.4314      1.037  0.0004398      0.102 5.859E-017 1.358E-014
285          0.4307      1.035  0.0004668     0.1084 5.684E-017 1.32E-014
286          0.4306      1.035  0.0004497     0.1044 7.105E-017 1.65E-014
287          0.4304      1.035  0.0004837     0.1124 5.859E-017 1.361E-014
288          0.4304      1.035  0.0004754     0.1104 5.859E-017 1.361E-014
289          0.4314      1.037  0.0004188    0.09707 7.653E-017 1.774E-014
290          0.4314      1.037  0.0003849    0.08921 5.684E-017 1.318E-014
291          0.4314      1.037  0.0003207    0.07434 7.105E-017 1.647E-014
292          0.4314      1.037  0.0003229    0.07486 7.105E-017 1.647E-014
293          0.4314      1.037  0.0004401      0.102 7.246E-017 1.68E-014
294          0.4307      1.035  0.0004675     0.1086 5.684E-017 1.32E-014
295          0.4306      1.035  0.0004486     0.1042 5.859E-017 1.361E-014
296          0.4304      1.035  0.0004874     0.1132 5.684E-017 1.321E-014
297          0.4304      1.035  0.0004735       0.11 5.124E-017 1.191E-014
298          0.4314      1.037  0.0003195    0.07406 3.178E-017 7.366E-015
299          0.4314      1.037  0.0003227    0.07481 4.494E-017 1.042E-014
300          0.4314      1.037  0.0004404     0.1021 5.859E-017 1.358E-014
301          0.4307      1.035  0.0004681     0.1087 3.178E-017 7.378E-015
302          0.4306      1.035  0.0004437     0.1031 4.494E-017 1.044E-014
303          0.4303      1.034  0.0005115     0.1189 4.494E-017 1.044E-014
304          0.4304      1.035  0.0004731     0.1099 5.124E-017 1.191E-014
305          0.4314      1.037  0.0003175     0.0736 7.105E-017 1.647E-014
306          0.4314      1.037  0.0003225    0.07475 4.263E-017 9.883E-015
307          0.4314      1.037  0.0004421     0.1025 4.494E-017 1.042E-014
308          0.4307      1.035  0.0004688     0.1088 5.859E-017 1.361E-014
309          0.4306      1.035  0.0004428     0.1028 4.263E-017 9.902E-015
310          0.4303      1.034  0.0005133     0.1193 4.494E-017 1.044E-014
311          0.4304      1.035  0.0004729     0.1099 2.842E-017 6.604E-015
312          0.4314      1.037  0.0003136     0.0727 5.859E-017 1.358E-014
313          0.4314      1.037   0.000322    0.07463 4.263E-017 9.883E-015
314          0.4314      1.037  0.0004495     0.1042 5.859E-017 1.358E-014
315          0.4307      1.035  0.0004695      0.109 5.859E-017 1.361E-014
316          0.4306      1.035  0.0004421     0.1027 7.105E-017 1.65E-014
317          0.4303      1.034  0.0005153     0.1198 7.105E-017 1.651E-014
318          0.4302      1.034  0.0005361     0.1246 7.105E-017 1.652E-014
319          0.4304      1.034  0.0004729     0.1099 4.263E-017 9.906E-015
320          0.4314      1.037  0.0003023    0.07008 5.859E-017 1.358E-014
321          0.4314      1.037    0.00032    0.07419 7.246E-017 1.68E-014
322          0.4307      1.035  0.0004704     0.1092 7.246E-017 1.683E-014
323          0.4306      1.035  0.0004413     0.1025 5.859E-017 1.361E-014
324          0.4303      1.034  0.0005262     0.1223 4.263E-017 9.908E-015
325          0.4302      1.034   0.000547     0.1272 7.105E-017 1.652E-014
326          0.4303      1.034  0.0004728     0.1099 5.124E-017 1.191E-014
327          0.4314      1.037  0.0003135    0.07266 4.494E-017 1.042E-014
328          0.4307      1.035  0.0004708     0.1093 5.859E-017 1.361E-014
329          0.4306      1.035  0.0004405     0.1023 4.494E-017 1.044E-014
330          0.4303      1.034  0.0005301     0.1232 5.859E-017 1.362E-014
331          0.4302      1.034  0.0005197     0.1208 5.859E-017 1.362E-014
332          0.4301      1.034  0.0005763      0.134 4.494E-017 1.045E-014
333          0.4303      1.034  0.0004727     0.1098 7.105E-017 1.651E-014
334          0.4307      1.035  0.0004731     0.1098 5.859E-017 1.361E-014
335          0.4306      1.035  0.0004335     0.1007 7.246E-017 1.683E-014
336          0.4303      1.034  0.0005389     0.1252 5.859E-017 1.362E-014
337          0.4301      1.034  0.0005088     0.1183 4.263E-017 9.911E-015
338          0.4301      1.034  0.0005859     0.1362 5.859E-017 1.362E-014
339          0.4301      1.034  0.0005811     0.1351 4.263E-017 9.913E-015
340          0.4303      1.034  0.0004727     0.1098 4.494E-017 1.044E-014
341          0.4307      1.035  0.0004739       0.11 7.105E-017 1.65E-014
342          0.4305      1.035  0.0004193    0.09738 5.859E-017 1.361E-014
343          0.4303      1.034  0.0005425     0.1261 7.105E-017 1.651E-014
344          0.4303      1.034  0.0005406     0.1256 4.263E-017 9.908E-015
345          0.4301      1.034  0.0005909     0.1374 5.859E-017 1.362E-014
346          0.4301      1.034  0.0005852     0.1361 2.842E-017 6.609E-015
347          0.4303      1.034  0.0004726     0.1098 4.263E-017 9.907E-015
348          0.4307      1.035  0.0004742     0.1101 5.859E-017 1.361E-014
349          0.4303      1.034  0.0005481     0.1274 7.105E-017 1.651E-014
350          0.4303      1.034  0.0005408     0.1257 4.263E-017 9.908E-015
351          0.4301      1.034  0.0005914     0.1375 5.684E-017 1.322E-014
352          0.4301      1.034  0.0005881     0.1367 5.859E-017 1.362E-014
353          0.4303      1.034  0.0004726     0.1098 4.494E-017 1.044E-014
354          0.4307      1.035  0.0004745     0.1102 7.105E-017 1.65E-014
355          0.4303      1.034  0.0005411     0.1258 6.355E-017 1.477E-014
356          0.4301      1.034  0.0005916     0.1376 5.684E-017 1.322E-014
357          0.4301      1.034  0.0005917     0.1376 7.105E-017 1.652E-014
358          0.4303      1.034  0.0004725     0.1098 7.246E-017 1.684E-014
359          0.4307      1.035  0.0004746     0.1102 5.859E-017 1.361E-014
360          0.4303      1.034  0.0005413     0.1258 4.263E-017 9.908E-015
361          0.4301      1.034  0.0005917     0.1376 5.859E-017 1.362E-014
362          0.4301      1.034   0.000594     0.1381 5.684E-017 1.322E-014
363          0.4303      1.034  0.0004725     0.1098 5.859E-017 1.362E-014
364          0.4307      1.035  0.0004747     0.1102 5.684E-017 1.32E-014
365          0.4303      1.034  0.0005415     0.1259 4.494E-017 1.044E-014
366          0.4301      1.034  0.0005919     0.1376 5.684E-017 1.322E-014
367            0.43      1.034  0.0005975     0.1389 5.684E-017 1.322E-014
368          0.4303      1.034  0.0004725     0.1098 7.105E-017 1.651E-014
369          0.4307      1.035  0.0004749     0.1103 7.246E-017 1.683E-014
370          0.4303      1.034  0.0005419     0.1259 7.246E-017 1.684E-014
371          0.4301      1.034  0.0005921     0.1377 5.684E-017 1.322E-014
372            0.43      1.034   0.000601     0.1398 5.859E-017 1.363E-014
373          0.4303      1.034  0.0004722     0.1097 5.684E-017 1.321E-014
374          0.4307      1.035  0.0004751     0.1103 4.494E-017 1.043E-014
375          0.4303      1.034  0.0005423      0.126 7.105E-017 1.651E-014
376          0.4301      1.034  0.0005923     0.1377 4.263E-017 9.913E-015
377            0.43      1.034  0.0006049     0.1407 5.859E-017 1.363E-014
378          0.4303      1.034  0.0004731       0.11 4.263E-017 9.908E-015
379          0.4303      1.034   0.000468     0.1088 5.684E-017 1.321E-014
380          0.4307      1.035   0.000476     0.1105 7.653E-017 1.777E-014
381          0.4303      1.034   0.000545     0.1267 4.494E-017 1.044E-014
382          0.4301      1.034  0.0005925     0.1378 4.494E-017 1.045E-014
383            0.43      1.034  0.0006077     0.1413 5.859E-017 1.363E-014
384          0.4302      1.034   0.000474     0.1102 5.684E-017 1.321E-014
385          0.4303      1.034   0.000442     0.1027 3.178E-017 7.385E-015
386          0.4303      1.034   0.000468     0.1088 5.684E-017 1.321E-014
387          0.4307      1.035  0.0004795     0.1113 5.859E-017 1.361E-014
388          0.4303      1.034  0.0005541     0.1288 5.859E-017 1.362E-014
389          0.4301      1.034  0.0005926     0.1378 4.494E-017 1.045E-014
390            0.43      1.034  0.0006111     0.1421 5.859E-017 1.363E-014
391          0.4302      1.034   0.000474     0.1102 3.178E-017 7.386E-015
392          0.4303      1.034  0.0004325     0.1005 5.684E-017 1.321E-014
393          0.4303      1.034   0.000468     0.1088 4.494E-017 1.044E-014
394          0.4301      1.034  0.0005929     0.1379 4.263E-017 9.913E-015
395            0.43      1.034  0.0006161     0.1433 5.859E-017 1.363E-014
396          0.4302      1.034  0.0004497     0.1045 5.684E-017 1.321E-014
397          0.4302      1.034  0.0004789     0.1113 5.859E-017 1.362E-014
398          0.4303      1.034  0.0004316     0.1003 5.684E-017 1.321E-014
399          0.4303      1.034   0.000468     0.1088 4.263E-017 9.907E-015
400          0.4301      1.034  0.0005938     0.1381 7.246E-017 1.685E-014
401            0.43      1.034  0.0006197     0.1441 4.263E-017 9.915E-015
402          0.4302      1.034  0.0004475      0.104 4.494E-017 1.045E-014
403          0.4301      1.034  0.0004813     0.1119 4.494E-017 1.045E-014
404          0.4303      1.034  0.0004309     0.1001 7.246E-017 1.684E-014
405          0.4303      1.034   0.000468     0.1088 4.263E-017 9.907E-015
406          0.4301      1.034  0.0005994     0.1394 4.263E-017 9.913E-015
407            0.43      1.034  0.0006232      0.145 4.263E-017 9.915E-015
408          0.4302      1.034  0.0004462     0.1037 5.859E-017 1.362E-014
409          0.4301      1.034  0.0004885     0.1136 5.859E-017 1.362E-014
410          0.4301      1.034  0.0004813     0.1119 7.246E-017 1.685E-014
411          0.4303      1.034  0.0004302    0.09998 7.246E-017 1.684E-014
412          0.4303      1.034   0.000468     0.1088 4.494E-017 1.044E-014
413            0.43      1.034  0.0006267     0.1458 7.105E-017 1.653E-014
414          0.4302      1.034  0.0004453     0.1035 5.684E-017 1.321E-014
415            0.43      1.034  0.0004987      0.116 5.859E-017 1.363E-014
416          0.4301      1.034  0.0004813     0.1119 5.684E-017 1.321E-014
417          0.4303      1.034  0.0004273     0.0993 4.494E-017 1.044E-014
418          0.4303      1.034   0.000468     0.1088 4.263E-017 9.907E-015
419          0.4299      1.034  0.0006309     0.1467 5.859E-017 1.363E-014
420          0.4302      1.034  0.0004439     0.1032 4.494E-017 1.045E-014
421            0.43      1.034  0.0005009     0.1165 7.105E-017 1.652E-014
422          0.4301      1.034  0.0004813     0.1119 7.105E-017 1.652E-014
423          0.4303      1.034  0.0004265    0.09913 4.263E-017 9.908E-015
424          0.4303      1.034   0.000468     0.1088 5.859E-017 1.362E-014
425          0.4299      1.033  0.0006378     0.1484 5.684E-017 1.322E-014
426          0.4299      1.034  0.0006309     0.1467 4.494E-017 1.045E-014
427          0.4302      1.034  0.0004393     0.1021 5.684E-017 1.321E-014
428            0.43      1.034  0.0005014     0.1166 4.494E-017 1.045E-014
429          0.4301      1.034  0.0004813     0.1119 5.684E-017 1.321E-014
430          0.4303      1.034  0.0004259    0.09897 5.684E-017 1.321E-014
431          0.4303      1.034   0.000468     0.1088 5.684E-017 1.321E-014
432          0.4299      1.033  0.0006614     0.1539 4.494E-017 1.045E-014
433          0.4299      1.033  0.0006378     0.1484 4.494E-017 1.045E-014
434          0.4302      1.034  0.0004341     0.1009 4.494E-017 1.045E-014
435            0.43      1.034  0.0005017     0.1167 5.684E-017 1.322E-014
436          0.4301      1.034  0.0004813     0.1119 4.263E-017 9.911E-015
437          0.4303      1.034  0.0004252    0.09882 5.684E-017 1.321E-014
438          0.4303      1.034   0.000468     0.1088 5.684E-017 1.321E-014
439          0.4298      1.033   0.000695     0.1617 5.859E-017 1.363E-014
440          0.4299      1.033  0.0006614     0.1539 4.494E-017 1.045E-014
441          0.4302      1.034  0.0004312     0.1002 4.494E-017 1.045E-014
442            0.43      1.034   0.000502     0.1167 4.263E-017 9.915E-015
443          0.4301      1.034  0.0004813     0.1119 4.263E-017 9.911E-015
444          0.4303      1.034  0.0004244    0.09863 4.263E-017 9.908E-015
445          0.4303      1.034   0.000468     0.1088 4.263E-017 9.907E-015
446          0.4297      1.033  0.0007192     0.1674 7.105E-017 1.654E-014
447          0.4298      1.033   0.000695     0.1617 4.263E-017 9.92E-015
448          0.4302      1.034  0.0004284     0.0996 5.684E-017 1.321E-014
449            0.43      1.034  0.0005021     0.1168 5.859E-017 1.363E-014
450          0.4301      1.034  0.0004813     0.1119 7.653E-017 1.779E-014
451          0.4303      1.034  0.0004217    0.09801 4.494E-017 1.044E-014
452          0.4303      1.034   0.000468     0.1088 5.859E-017 1.362E-014
453          0.4297      1.033  0.0007266     0.1691 7.246E-017 1.686E-014
454          0.4297      1.033  0.0007192     0.1674 7.105E-017 1.654E-014
455          0.4302      1.034  0.0004258    0.09899 4.263E-017 9.911E-015
456            0.43      1.034  0.0005024     0.1169 7.246E-017 1.685E-014
457          0.4301      1.034  0.0004813     0.1119 4.263E-017 9.911E-015
458          0.4303      1.034  0.0004086    0.09496 4.494E-017 1.044E-014
459          0.4303      1.034   0.000468     0.1088 7.246E-017 1.684E-014
460          0.4296      1.033  0.0007439     0.1731 4.494E-017 1.046E-014
461          0.4297      1.033  0.0007266     0.1691 5.859E-017 1.364E-014
462          0.4297      1.033  0.0007333     0.1707 5.859E-017 1.364E-014
463          0.4302      1.034  0.0004215    0.09799 5.684E-017 1.321E-014
464            0.43      1.034  0.0005027     0.1169 4.263E-017 9.915E-015
465          0.4301      1.034  0.0004813     0.1119 4.494E-017 1.045E-014
466          0.4303      1.034   0.000468     0.1088 4.263E-017 9.907E-015
467          0.4296      1.033  0.0007632     0.1777 4.263E-017 9.924E-015
468          0.4296      1.033  0.0007439     0.1731 4.263E-017 9.923E-015
469          0.4296      1.033  0.0007439     0.1731 5.684E-017 1.323E-014
470          0.4297      1.033  0.0007343     0.1709 5.859E-017 1.364E-014
471          0.4302      1.034  0.0004185     0.0973 4.494E-017 1.045E-014
472            0.43      1.034   0.000503      0.117 4.494E-017 1.045E-014
473          0.4301      1.034  0.0004813     0.1119 4.494E-017 1.045E-014
474          0.4303      1.034   0.000468     0.1088 5.684E-017 1.321E-014
475          0.4296      1.033  0.0007702     0.1793 5.859E-017 1.364E-014
476          0.4296      1.033  0.0007632     0.1777 5.859E-017 1.364E-014
477          0.4297      1.033  0.0007348      0.171 5.859E-017 1.364E-014
478          0.4302      1.034  0.0004164    0.09681 4.263E-017 9.911E-015
479            0.43      1.034  0.0005033      0.117 7.246E-017 1.685E-014
480          0.4301      1.034  0.0004813     0.1119 4.263E-017 9.911E-015
481          0.4303      1.034   0.000468     0.1088 5.859E-017 1.362E-014
482          0.4295      1.033  0.0007775      0.181 7.246E-017 1.687E-014
483          0.4296      1.033  0.0007702     0.1793 7.246E-017 1.687E-014
484          0.4295      1.032  0.0008093     0.1884 5.684E-017 1.323E-014
485          0.4297      1.033  0.0007352     0.1711 4.494E-017 1.046E-014
486          0.4302      1.034  0.0004154    0.09658 5.684E-017 1.321E-014
487            0.43      1.034  0.0005036     0.1171 4.263E-017 9.915E-015
488          0.4301      1.034  0.0004813     0.1119 2.842E-017 6.607E-015
489          0.4303      1.034   0.000468     0.1088 5.684E-017 1.321E-014
490          0.4295      1.032   0.000788     0.1835 4.263E-017 9.927E-015
491          0.4295      1.033  0.0007775      0.181 5.124E-017 1.193E-014
492          0.4295      1.032  0.0008104     0.1887 5.859E-017 1.364E-014
493          0.4295      1.032  0.0008173     0.1903 3.178E-017 7.399E-015
494          0.4297      1.033  0.0007358     0.1712 4.494E-017 1.046E-014
495          0.4302      1.034  0.0004148    0.09643 7.246E-017 1.685E-014
496            0.43      1.034  0.0005042     0.1173 7.246E-017 1.685E-014
497          0.4301      1.034  0.0004813     0.1119 5.859E-017 1.362E-014
498          0.4303      1.034   0.000468     0.1088 2.842E-017 6.605E-015
499          0.4294      1.032  0.0007945      0.185 5.684E-017 1.324E-014
500          0.4295      1.032   0.000788     0.1835 4.263E-017 9.927E-015
501          0.4295      1.032  0.0008109     0.1888 4.494E-017 1.046E-014
502          0.4295      1.032  0.0008226     0.1915 7.246E-017 1.687E-014
503          0.4297      1.033  0.0007366     0.1714 5.859E-017 1.364E-014
504          0.4302      1.034  0.0004144    0.09633 5.684E-017 1.321E-014
505          0.4298      1.033  0.0005193     0.1208 5.684E-017 1.322E-014
506          0.4301      1.034  0.0004813     0.1119 4.263E-017 9.911E-015
507          0.4303      1.034   0.000468     0.1088 4.263E-017 9.907E-015
508          0.4294      1.032  0.0007956     0.1853 5.859E-017 1.364E-014
509          0.4294      1.032  0.0007945      0.185 5.684E-017 1.324E-014
510          0.4295      1.032  0.0008112     0.1889 5.684E-017 1.323E-014
511          0.4297      1.033  0.0007372     0.1716 5.684E-017 1.323E-014
512          0.4302      1.034  0.0004138    0.09619 5.684E-017 1.321E-014
513          0.4298      1.033  0.0005289     0.1231 4.263E-017 9.919E-015
514          0.4298      1.033  0.0005212     0.1213 4.494E-017 1.046E-014
515          0.4301      1.034  0.0004813     0.1119 4.494E-017 1.045E-014
516          0.4294      1.032  0.0007956     0.1853 4.494E-017 1.046E-014
517          0.4294      1.032  0.0007956     0.1853 4.263E-017 9.927E-015
518          0.4294      1.032  0.0008126     0.1892 5.684E-017 1.324E-014
519          0.4295      1.032  0.0008115     0.1889 5.859E-017 1.364E-014
520          0.4297      1.033  0.0007376     0.1717 5.859E-017 1.364E-014
521          0.4302      1.034  0.0004133    0.09609 4.263E-017 9.911E-015
522          0.4298      1.033  0.0005377     0.1251 4.494E-017 1.046E-014
523          0.4298      1.033  0.0005223     0.1215 5.859E-017 1.363E-014
524          0.4301      1.034  0.0004813     0.1119 4.494E-017 1.045E-014
525          0.4294      1.032  0.0007956     0.1853 4.494E-017 1.046E-014
526          0.4294      1.032  0.0007956     0.1853 4.494E-017 1.046E-014
527          0.4294      1.032  0.0008229     0.1916 4.494E-017 1.047E-014
528          0.4295      1.032  0.0008117      0.189 4.263E-017 9.926E-015
529          0.4297      1.033   0.000738     0.1718 4.494E-017 1.046E-014
530          0.4301      1.034  0.0004101    0.09533 7.246E-017 1.685E-014
531          0.4298      1.033  0.0005224     0.1216 2.842E-017 6.613E-015
532          0.4301      1.034  0.0004813     0.1119 5.859E-017 1.362E-014
533          0.4294      1.032  0.0007957     0.1853 5.684E-017 1.324E-014
534          0.4294      1.032  0.0007956     0.1853 4.263E-017 9.928E-015
535          0.4294      1.032  0.0008312     0.1936 4.494E-017 1.047E-014
536          0.4295      1.032  0.0008119      0.189 5.684E-017 1.323E-014
537          0.4297      1.033   0.000739      0.172 5.124E-017 1.192E-014
538          0.4301      1.034  0.0004043    0.09399 5.859E-017 1.362E-014
539          0.4301      1.034  0.0003933    0.09145 4.263E-017 9.912E-015
540          0.4298      1.033  0.0005226     0.1216 4.263E-017 9.919E-015
541          0.4301      1.034  0.0004813     0.1119 7.246E-017 1.685E-014
542          0.4294      1.032  0.0007958     0.1853 4.494E-017 1.047E-014
543          0.4294      1.032  0.0007957     0.1853 7.105E-017 1.655E-014
544          0.4294      1.032  0.0008347     0.1944 4.494E-017 1.047E-014
545          0.4295      1.032  0.0008127     0.1892 4.494E-017 1.046E-014
546          0.4297      1.033  0.0007476      0.174 4.263E-017 9.922E-015
547          0.4301      1.034  0.0003979    0.09252 7.246E-017 1.685E-014
548          0.4298      1.033  0.0005227     0.1216 4.263E-017 9.919E-015
549          0.4301      1.034  0.0004813     0.1119 4.263E-017 9.911E-015
550          0.4294      1.032  0.0007962     0.1854 7.105E-017 1.655E-014
551          0.4294      1.032  0.0007958     0.1853 4.494E-017 1.047E-014
552          0.4294      1.032  0.0008353     0.1945 5.859E-017 1.365E-014
553          0.4294      1.032   0.000842     0.1961 5.684E-017 1.324E-014
554          0.4295      1.032  0.0008134     0.1894 4.494E-017 1.046E-014
555          0.4297      1.033   0.000748     0.1741 5.859E-017 1.364E-014
556          0.4301      1.034  0.0003807    0.08851 7.246E-017 1.685E-014
557          0.4298      1.033  0.0005228     0.1216 5.859E-017 1.363E-014
558          0.4301      1.034  0.0004813     0.1119 4.263E-017 9.911E-015
559          0.4294      1.032  0.0007966     0.1855 5.859E-017 1.365E-014
560          0.4294      1.032  0.0007962     0.1854 4.263E-017 9.929E-015
561          0.4294      1.032  0.0008355     0.1946 7.246E-017 1.688E-014
562          0.4294      1.032  0.0008475     0.1974 5.684E-017 1.324E-014
563          0.4295      1.032  0.0008203      0.191 3.178E-017 7.399E-015
564          0.4297      1.033  0.0007484     0.1742 4.494E-017 1.046E-014
565          0.4298      1.033  0.0005229     0.1217 5.859E-017 1.363E-014
566          0.4301      1.034  0.0004813     0.1119 5.684E-017 1.321E-014
567          0.4294      1.032  0.0007961     0.1854 4.263E-017 9.929E-015
568          0.4294      1.032  0.0007966     0.1855 5.859E-017 1.365E-014
569          0.4294      1.032  0.0008071      0.188 4.263E-017 9.929E-015
570          0.4294      1.032  0.0008358     0.1946 4.494E-017 1.047E-014
571          0.4297      1.033  0.0007487     0.1743 5.684E-017 1.323E-014
572          0.4298      1.033   0.000523     0.1217 4.263E-017 9.919E-015
573          0.4294      1.032   0.000796     0.1854 2.842E-017 6.619E-015
574          0.4294      1.032  0.0007961     0.1854 5.859E-017 1.365E-014
575          0.4294      1.032  0.0008085     0.1883 4.263E-017 9.929E-015
576          0.4294      1.032  0.0008359     0.1947 4.263E-017 9.929E-015
577          0.4297      1.033  0.0007491     0.1743 4.263E-017 9.922E-015
578          0.4298      1.033  0.0005235     0.1218 5.859E-017 1.363E-014
579          0.4294      1.032  0.0007931     0.1847 4.494E-017 1.047E-014
580          0.4294      1.032   0.000796     0.1854 4.263E-017 9.929E-015
581          0.4294      1.032   0.000796     0.1854 5.684E-017 1.324E-014
582          0.4294      1.032  0.0008095     0.1885 5.859E-017 1.365E-014
583          0.4294      1.032  0.0008362     0.1947 4.494E-017 1.047E-014
584          0.4297      1.033  0.0007495     0.1744 7.246E-017 1.687E-014
585          0.4298      1.033  0.0005317     0.1237 4.494E-017 1.046E-014
586          0.4298      1.033  0.0005245      0.122 7.105E-017 1.653E-014
587          0.4294      1.032   0.000791     0.1842 5.684E-017 1.324E-014
588          0.4294      1.032  0.0007931     0.1847 5.859E-017 1.365E-014
589          0.4294      1.032   0.000796     0.1854 4.494E-017 1.047E-014
590          0.4294      1.032  0.0008105     0.1888 4.263E-017 9.93E-015
591          0.4294      1.032  0.0008363     0.1948 5.859E-017 1.365E-014
592          0.4297      1.033  0.0007499     0.1745 4.263E-017 9.923E-015
593          0.4298      1.033  0.0005322     0.1238 4.263E-017 9.92E-015
594          0.4297      1.033   0.000529     0.1231 4.494E-017 1.046E-014
595          0.4294      1.032  0.0007936     0.1848 5.684E-017 1.324E-014
596          0.4294      1.032  0.0007902      0.184 5.684E-017 1.324E-014
597          0.4294      1.032   0.000796     0.1854 4.494E-017 1.047E-014
598          0.4293      1.032  0.0008201      0.191 5.859E-017 1.365E-014
599          0.4294      1.032  0.0008376     0.1951 5.684E-017 1.324E-014
600          0.4297      1.033  0.0007504     0.1746 4.494E-017 1.046E-014
601          0.4298      1.033  0.0005324     0.1239 5.684E-017 1.323E-014
602          0.4297      1.033  0.0005016     0.1167 5.859E-017 1.364E-014
603          0.4297      1.033  0.0005377     0.1251 4.263E-017 9.922E-015
604          0.4294      1.032  0.0007959     0.1854 5.684E-017 1.324E-014
605          0.4294      1.032  0.0007936     0.1848 4.494E-017 1.047E-014
606          0.4294      1.032  0.0007936     0.1848 3.178E-017 7.401E-015
607          0.4293      1.032  0.0007553     0.1759 4.494E-017 1.047E-014
608          0.4294      1.032  0.0007902      0.184 5.859E-017 1.365E-014
609          0.4294      1.032   0.000796     0.1854 5.859E-017 1.365E-014
610          0.4293      1.032  0.0008247     0.1921 7.246E-017 1.688E-014
611          0.4294      1.032   0.000847     0.1973 4.494E-017 1.047E-014
612          0.4297      1.033  0.0007507     0.1747 4.263E-017 9.923E-015
613          0.4298      1.033  0.0005326     0.1239 5.684E-017 1.323E-014
614          0.4297      1.033  0.0004872     0.1134 5.859E-017 1.364E-014
615          0.4296      1.033  0.0005461     0.1271 4.263E-017 9.924E-015
616          0.4293      1.032  0.0008021     0.1868 4.263E-017 9.93E-015
617          0.4294      1.032  0.0007959     0.1854 7.105E-017 1.655E-014
618          0.4294      1.032  0.0007959     0.1854 7.105E-017 1.655E-014
619          0.4293      1.032  0.0007471      0.174 4.494E-017 1.047E-014
620          0.4294      1.032   0.000796     0.1854 5.859E-017 1.365E-014
621          0.4293      1.032  0.0008268     0.1926 5.684E-017 1.324E-014
622          0.4297      1.033   0.000752      0.175 4.494E-017 1.046E-014
623          0.4298      1.033  0.0005328      0.124 7.105E-017 1.653E-014
624          0.4296      1.033  0.0005488     0.1277 4.263E-017 9.924E-015
625          0.4296      1.033   0.000548     0.1276 7.246E-017 1.687E-014
626          0.4293      1.032  0.0008108     0.1889 5.859E-017 1.365E-014
627          0.4294      1.032   0.000796     0.1854 5.124E-017 1.193E-014
628          0.4293      1.032  0.0008283     0.1929 7.246E-017 1.688E-014
629          0.4296      1.033  0.0007576     0.1763 4.263E-017 9.923E-015
630          0.4298      1.033   0.000533      0.124 2.842E-017 6.613E-015
631          0.4296      1.033  0.0005495     0.1279 4.263E-017 9.924E-015
632          0.4296      1.033  0.0005485     0.1277 7.246E-017 1.687E-014
633          0.4293      1.032  0.0008134     0.1895 4.494E-017 1.047E-014
634          0.4294      1.032   0.000796     0.1854 5.684E-017 1.324E-014
635          0.4293      1.032  0.0008305     0.1935 5.859E-017 1.365E-014
636          0.4298      1.033  0.0005337     0.1242 7.246E-017 1.686E-014
637          0.4296      1.033  0.0005499      0.128 4.494E-017 1.046E-014
638          0.4296      1.033  0.0005487     0.1277 2.842E-017 6.616E-015
639          0.4293      1.032  0.0008222     0.1915 5.859E-017 1.365E-014
640          0.4294      1.032   0.000796     0.1854 4.263E-017 9.929E-015
641          0.4293      1.032  0.0008349     0.1945 4.494E-017 1.047E-014
642          0.4298      1.033  0.0005341     0.1243 7.105E-017 1.653E-014
643          0.4296      1.033  0.0005506     0.1282 2.842E-017 6.616E-015
644          0.4296      1.033   0.000549     0.1278 7.246E-017 1.687E-014
645          0.4294      1.032   0.000796     0.1854 7.246E-017 1.688E-014
646          0.4293      1.032  0.0008362     0.1948 4.263E-017 9.931E-015
647          0.4298      1.033  0.0005346     0.1244 7.105E-017 1.653E-014
648          0.4296      1.033  0.0005521     0.1285 4.263E-017 9.924E-015
649          0.4296      1.033  0.0005493     0.1279 5.859E-017 1.364E-014
650          0.4294      1.032   0.000796     0.1854 7.246E-017 1.688E-014
651          0.4293      1.032  0.0008365     0.1949 5.859E-017 1.365E-014
652          0.4298      1.033   0.000535     0.1245 5.684E-017 1.323E-014
653          0.4296      1.033  0.0005533     0.1288 4.494E-017 1.046E-014
654          0.4296      1.033  0.0005496     0.1279 4.494E-017 1.046E-014
655          0.4294      1.032   0.000796     0.1854 4.494E-017 1.047E-014
656          0.4293      1.032  0.0008367     0.1949 5.859E-017 1.365E-014
657          0.4293      1.032  0.0008374     0.1951 5.684E-017 1.324E-014
658          0.4298      1.033  0.0005353     0.1245 4.263E-017 9.92E-015
659          0.4296      1.033  0.0005541      0.129 6.355E-017 1.479E-014
660          0.4296      1.033  0.0005499      0.128 5.859E-017 1.364E-014
661          0.4294      1.032   0.000796     0.1854 7.246E-017 1.688E-014
662          0.4293      1.032  0.0008368     0.1949 5.859E-017 1.365E-014
663          0.4293      1.032  0.0008384     0.1953 7.105E-017 1.655E-014
664          0.4298      1.033  0.0005358     0.1247 5.684E-017 1.323E-014
665          0.4296      1.033   0.000555     0.1292 4.263E-017 9.924E-015
666          0.4296      1.033  0.0005503     0.1281 4.494E-017 1.046E-014
667          0.4294      1.032   0.000796     0.1854 4.494E-017 1.047E-014
668          0.4293      1.032   0.000837      0.195 7.105E-017 1.655E-014
669          0.4293      1.032   0.000843     0.1964 4.494E-017 1.047E-014
670          0.4298      1.033  0.0005363     0.1248 2.842E-017 6.613E-015
671          0.4296      1.033  0.0005557     0.1294 5.859E-017 1.364E-014
672          0.4296      1.033  0.0005523     0.1286 5.859E-017 1.364E-014
673          0.4296      1.033  0.0005506     0.1282 5.124E-017 1.193E-014
674          0.4294      1.032   0.000796     0.1854 7.246E-017 1.688E-014
675          0.4293      1.032  0.0008381     0.1952 7.105E-017 1.655E-014
676          0.4293      1.032   0.000845     0.1968 4.263E-017 9.931E-015
677          0.4298      1.033  0.0005365     0.1248 4.263E-017 9.92E-015
678          0.4296      1.033  0.0005569     0.1296 4.263E-017 9.924E-015
679          0.4296      1.033  0.0005534     0.1288 7.653E-017 1.781E-014
680          0.4295      1.033   0.000552     0.1285 7.105E-017 1.654E-014
681          0.4294      1.032   0.000796     0.1854 5.859E-017 1.365E-014
682          0.4293      1.032  0.0008461     0.1971 5.859E-017 1.365E-014
683          0.4298      1.033  0.0005368     0.1249 5.859E-017 1.363E-014
684          0.4296      1.033  0.0005608     0.1305 3.178E-017 7.397E-015
685          0.4296      1.033  0.0005545     0.1291 5.684E-017 1.323E-014
686          0.4295      1.032   0.000553     0.1288 4.494E-017 1.046E-014
687          0.4298      1.033   0.000537      0.125 5.684E-017 1.323E-014
688          0.4296      1.033    0.00057     0.1327 5.684E-017 1.323E-014
689          0.4296      1.033  0.0005556     0.1293 7.105E-017 1.654E-014
690          0.4294      1.032  0.0005044     0.1175 7.105E-017 1.655E-014
691          0.4294      1.032  0.0005715     0.1331 4.494E-017 1.047E-014
692          0.4298      1.033  0.0005373      0.125 4.494E-017 1.046E-014
693          0.4296      1.033  0.0005564     0.1295 5.684E-017 1.323E-014
694          0.4294      1.032  0.0005022     0.1169 5.124E-017 1.193E-014
695          0.4294      1.032  0.0004981      0.116 5.684E-017 1.324E-014
696          0.4294      1.032  0.0005882      0.137 5.684E-017 1.324E-014
697          0.4294      1.032  0.0005747     0.1338 4.494E-017 1.047E-014
698          0.4298      1.033  0.0005378     0.1251 5.859E-017 1.363E-014
699          0.4296      1.033  0.0005577     0.1298 4.263E-017 9.925E-015
700          0.4294      1.032  0.0005014     0.1168 5.684E-017 1.324E-014
701          0.4294      1.032  0.0004852      0.113 7.246E-017 1.687E-014
702          0.4294      1.032  0.0005983     0.1394 5.859E-017 1.365E-014
703          0.4294      1.032  0.0005805     0.1352 4.494E-017 1.047E-014
704          0.4298      1.033  0.0005391     0.1254 4.263E-017 9.92E-015
705          0.4296      1.033  0.0005599     0.1303 7.246E-017 1.687E-014
706          0.4294      1.032   0.000501     0.1167 5.859E-017 1.364E-014
707          0.4293      1.032   0.000596     0.1388 4.494E-017 1.047E-014
708          0.4294      1.032  0.0005805     0.1352 5.859E-017 1.365E-014
709          0.4298      1.033  0.0005409     0.1259 4.263E-017 9.92E-015
710          0.4295      1.033  0.0005773     0.1344 4.494E-017 1.046E-014
711          0.4294      1.032  0.0005007     0.1166 4.494E-017 1.046E-014
712          0.4292      1.032  0.0006054     0.1411 5.859E-017 1.365E-014
713          0.4293      1.032  0.0006062     0.1412 5.859E-017 1.365E-014
714          0.4294      1.032  0.0005805     0.1352 5.859E-017 1.365E-014
715          0.4298      1.033   0.000541     0.1259 5.859E-017 1.363E-014
716          0.4295      1.032  0.0005928      0.138 4.494E-017 1.046E-014
717          0.4294      1.032  0.0005004     0.1165 5.859E-017 1.364E-014
718          0.4291      1.032  0.0006156     0.1435 4.263E-017 9.935E-015
719          0.4293      1.032  0.0006073     0.1415 2.842E-017 6.621E-015
720          0.4294      1.032  0.0005805     0.1352 4.494E-017 1.047E-014
721          0.4298      1.033  0.0005412     0.1259 7.246E-017 1.686E-014
722          0.4295      1.032  0.0005979     0.1392 5.684E-017 1.324E-014
723          0.4294      1.032  0.0005002     0.1165 4.263E-017 9.928E-015
724          0.4291      1.032  0.0006156     0.1435 4.263E-017 9.935E-015
725          0.4291      1.031  0.0006515     0.1518 4.494E-017 1.047E-014
726          0.4293      1.032  0.0006078     0.1416 2.842E-017 6.621E-015
727          0.4294      1.032  0.0005805     0.1352 4.494E-017 1.047E-014
728          0.4298      1.033  0.0005413      0.126 5.684E-017 1.323E-014
729          0.4295      1.032  0.0006026     0.1403 5.684E-017 1.324E-014
730          0.4294      1.032  0.0004999     0.1164 5.684E-017 1.324E-014
731          0.4291      1.031  0.0006155     0.1435 4.494E-017 1.047E-014
732          0.4291      1.031  0.0006565      0.153 7.105E-017 1.656E-014
733          0.4293      1.032  0.0006082     0.1417 4.494E-017 1.047E-014
734          0.4294      1.032  0.0005805     0.1352 4.263E-017 9.929E-015
735          0.4298      1.033  0.0005414      0.126 5.859E-017 1.363E-014
736          0.4295      1.032  0.0006052     0.1409 7.246E-017 1.687E-014
737          0.4294      1.032  0.0004997     0.1164 7.246E-017 1.687E-014
738           0.429      1.031  0.0006155     0.1435 5.684E-017 1.325E-014
739          0.4291      1.031  0.0006592     0.1536 5.859E-017 1.366E-014
740          0.4293      1.032  0.0006086     0.1418 5.859E-017 1.365E-014
741          0.4294      1.032  0.0005805     0.1352 4.263E-017 9.929E-015
742          0.4298      1.033  0.0005416      0.126 5.684E-017 1.323E-014
743          0.4295      1.032  0.0006073     0.1414 4.494E-017 1.046E-014
744          0.4294      1.032  0.0004994     0.1163 7.105E-017 1.655E-014
745           0.429      1.031  0.0006154     0.1435 7.246E-017 1.689E-014
746          0.4291      1.031  0.0006668     0.1554 5.684E-017 1.325E-014
747          0.4291      1.031  0.0006594     0.1537 4.263E-017 9.936E-015
748          0.4293      1.032  0.0006091     0.1419 4.494E-017 1.047E-014
749          0.4294      1.032  0.0005805     0.1352 4.263E-017 9.929E-015
750          0.4298      1.033  0.0005417      0.126 7.246E-017 1.686E-014
751          0.4295      1.032  0.0006091     0.1418 5.859E-017 1.364E-014
752          0.4294      1.032  0.0004991     0.1162 4.494E-017 1.046E-014
753           0.429      1.031  0.0006192     0.1443 3.178E-017 7.407E-015
754           0.429      1.031  0.0005804     0.1353 4.494E-017 1.048E-014
755           0.429      1.031   0.000673     0.1569 4.263E-017 9.937E-015
756          0.4291      1.031  0.0006596     0.1537 5.859E-017 1.366E-014
757          0.4293      1.032  0.0006095      0.142 5.684E-017 1.324E-014
758          0.4294      1.032  0.0005805     0.1352 3.178E-017 7.401E-015
759          0.4298      1.033  0.0005419     0.1261 6.355E-017 1.479E-014
760          0.4295      1.032  0.0006112     0.1423 4.494E-017 1.046E-014
761          0.4294      1.032  0.0004986     0.1161 5.684E-017 1.324E-014
762           0.429      1.031  0.0006244     0.1456 4.263E-017 9.938E-015
763          0.4289      1.031  0.0005511     0.1285 4.494E-017 1.048E-014
764          0.4291      1.031  0.0006597     0.1538 4.263E-017 9.936E-015
765          0.4293      1.032  0.0006102     0.1421 4.263E-017 9.932E-015
766          0.4294      1.032  0.0005805     0.1352 7.105E-017 1.655E-014
767          0.4298      1.033  0.0005421     0.1261 5.859E-017 1.363E-014
768          0.4295      1.032  0.0006132     0.1428 5.684E-017 1.324E-014
769          0.4294      1.032  0.0004946     0.1152 5.124E-017 1.193E-014
770           0.429      1.031  0.0006372     0.1485 4.263E-017 9.938E-015
771          0.4289      1.031  0.0005405      0.126 4.263E-017 9.939E-015
772          0.4289      1.031  0.0005507     0.1284 4.494E-017 1.048E-014
773          0.4291      1.031    0.00066     0.1538 4.494E-017 1.047E-014
774          0.4292      1.032   0.000611     0.1423 5.684E-017 1.324E-014
775          0.4294      1.032  0.0005805     0.1352 7.105E-017 1.655E-014
776          0.4298      1.033  0.0005431     0.1264 5.684E-017 1.323E-014
777          0.4295      1.032  0.0006162     0.1435 5.859E-017 1.364E-014
778          0.4294      1.032  0.0004825     0.1124 4.494E-017 1.047E-014
779          0.4289      1.031  0.0006476      0.151 5.859E-017 1.366E-014
780          0.4289      1.031  0.0005301     0.1236 5.859E-017 1.366E-014
781          0.4289      1.031  0.0005504     0.1283 5.859E-017 1.366E-014
782          0.4291      1.031  0.0006604     0.1539 7.105E-017 1.656E-014
783          0.4292      1.032  0.0006119     0.1426 5.859E-017 1.365E-014
784          0.4294      1.032  0.0005805     0.1352 4.263E-017 9.929E-015
785          0.4297      1.033  0.0005516     0.1283 7.246E-017 1.686E-014
786          0.4294      1.032  0.0006225     0.1449 7.246E-017 1.687E-014
787          0.4289      1.031  0.0006557     0.1529 7.246E-017 1.689E-014
788          0.4289      1.031    0.00055     0.1282 4.494E-017 1.048E-014
789          0.4291      1.031  0.0006606      0.154 4.494E-017 1.047E-014
790          0.4292      1.032  0.0006125     0.1427 7.653E-017 1.783E-014
791          0.4294      1.032  0.0005805     0.1352 4.263E-017 9.929E-015
792          0.4294      1.032  0.0006237     0.1452 4.263E-017 9.927E-015
793          0.4294      1.032  0.0006262     0.1458 7.105E-017 1.655E-014
794          0.4289      1.031  0.0006631     0.1546 6.355E-017 1.482E-014
795          0.4289      1.031  0.0005496     0.1281 4.263E-017 9.939E-015
796          0.4291      1.031  0.0006611     0.1541 6.355E-017 1.481E-014
797          0.4292      1.032  0.0006131     0.1428 4.263E-017 9.932E-015
798          0.4294      1.032  0.0005805     0.1352 2.842E-017 6.62E-015
799          0.4294      1.032  0.0006248     0.1455 4.263E-017 9.927E-015
800          0.4294      1.032  0.0006323     0.1472 7.246E-017 1.687E-014
801          0.4289      1.031  0.0006635     0.1547 4.263E-017 9.94E-015
802          0.4289      1.031  0.0006654     0.1551 7.105E-017 1.657E-014
803          0.4289      1.031  0.0005492      0.128 5.859E-017 1.366E-014
804          0.4291      1.031  0.0006641     0.1548 4.263E-017 9.936E-015
805          0.4292      1.032  0.0006134     0.1429 4.494E-017 1.047E-014
806          0.4294      1.032  0.0005805     0.1352 3.178E-017 7.401E-015
807          0.4294      1.032  0.0006257     0.1457 4.494E-017 1.046E-014
808          0.4294      1.032  0.0006376     0.1485 5.684E-017 1.324E-014
809          0.4289      1.031   0.000664     0.1548 5.684E-017 1.325E-014
810          0.4289      1.031  0.0006696     0.1561 5.859E-017 1.366E-014
811          0.4289      1.031  0.0006654     0.1551 7.246E-017 1.689E-014
812          0.4289      1.031   0.000549      0.128 4.494E-017 1.048E-014
813          0.4291      1.031  0.0006709     0.1564 5.684E-017 1.325E-014
814          0.4292      1.032  0.0006139      0.143 4.263E-017 9.932E-015
815          0.4294      1.032  0.0005805     0.1352 5.859E-017 1.365E-014
816          0.4294      1.032  0.0006265     0.1459 4.494E-017 1.046E-014
817          0.4294      1.032  0.0006406     0.1492 2.842E-017 6.619E-015
818          0.4289      1.031  0.0006645     0.1549 5.859E-017 1.366E-014
819          0.4289      1.031  0.0006732      0.157 5.859E-017 1.366E-014
820          0.4289      1.031  0.0006696     0.1561 4.494E-017 1.048E-014
821          0.4289      1.031  0.0005486     0.1279 5.859E-017 1.366E-014
822          0.4292      1.032  0.0006143     0.1431 7.246E-017 1.688E-014
823          0.4294      1.032  0.0005805     0.1352 7.246E-017 1.688E-014
824          0.4294      1.032  0.0006272      0.146 7.105E-017 1.655E-014
825          0.4289      1.031  0.0006649      0.155 5.859E-017 1.366E-014
826          0.4289      1.031  0.0006771     0.1579 4.494E-017 1.048E-014
827          0.4289      1.031  0.0006732      0.157 5.859E-017 1.366E-014
828          0.4289      1.031  0.0005454     0.1271 5.859E-017 1.366E-014
829          0.4292      1.032   0.000615     0.1433 4.263E-017 9.932E-015
830          0.4294      1.032  0.0005805     0.1352 7.246E-017 1.688E-014
831          0.4294      1.032  0.0006278     0.1462 5.859E-017 1.364E-014
832          0.4289      1.031  0.0006654     0.1551 5.684E-017 1.325E-014
833          0.4289      1.031  0.0006803     0.1586 5.859E-017 1.366E-014
834          0.4289      1.031  0.0006771     0.1579 4.263E-017 9.94E-015
835          0.4289      1.031  0.0005344     0.1246 7.246E-017 1.689E-014
836          0.4292      1.032  0.0006219     0.1449 7.246E-017 1.688E-014
837          0.4294      1.032  0.0006283     0.1463 5.684E-017 1.324E-014
838          0.4289      1.031  0.0006659     0.1552 5.684E-017 1.325E-014
839          0.4289      1.031  0.0006838     0.1594 5.684E-017 1.325E-014
840          0.4289      1.031  0.0006803     0.1586 5.859E-017 1.366E-014
841          0.4292      1.032  0.0006247     0.1455 7.105E-017 1.655E-014
842          0.4294      1.032  0.0006288     0.1464 7.105E-017 1.655E-014
843          0.4289      1.031  0.0006663     0.1554 5.124E-017 1.195E-014
844          0.4289      1.031  0.0007047     0.1643 5.684E-017 1.325E-014
845          0.4289      1.031  0.0006838     0.1594 7.105E-017 1.657E-014
846          0.4289      1.031  0.0006838     0.1594 4.494E-017 1.048E-014
847          0.4292      1.032  0.0006261     0.1459 7.105E-017 1.655E-014
848          0.4294      1.032  0.0006296     0.1466 5.859E-017 1.364E-014
849          0.4289      1.031  0.0006666     0.1554 4.494E-017 1.048E-014
850          0.4288      1.031  0.0007078      0.165 5.684E-017 1.325E-014
851          0.4289      1.031  0.0006838     0.1594 4.263E-017 9.94E-015
852          0.4289      1.031  0.0006838     0.1594 7.105E-017 1.657E-014
853          0.4292      1.032  0.0006264     0.1459 5.859E-017 1.365E-014
854          0.4294      1.032  0.0006309     0.1469 5.124E-017 1.193E-014
855          0.4289      1.031  0.0006719     0.1567 5.859E-017 1.366E-014
856          0.4288      1.031  0.0007167     0.1671 7.246E-017 1.69E-014
857          0.4289      1.031  0.0006838     0.1594 5.859E-017 1.366E-014
858          0.4289      1.031  0.0006838     0.1594 5.684E-017 1.325E-014
859          0.4292      1.032  0.0006267      0.146 7.105E-017 1.655E-014
860          0.4294      1.032  0.0006361     0.1481 5.859E-017 1.364E-014
861          0.4294      1.032   0.000645     0.1502 5.859E-017 1.364E-014
862          0.4289      1.031  0.0006755     0.1575 5.859E-017 1.366E-014
863          0.4288      1.031  0.0007272     0.1696 5.859E-017 1.366E-014
864          0.4289      1.031  0.0006838     0.1594 4.494E-017 1.048E-014
865          0.4289      1.031  0.0006838     0.1594 5.859E-017 1.366E-014
866          0.4292      1.032   0.000627     0.1461 4.494E-017 1.047E-014
867          0.4289      1.031  0.0006787     0.1583 2.842E-017 6.627E-015
868          0.4288      1.031  0.0007286     0.1699 5.684E-017 1.326E-014
869          0.4289      1.031  0.0006838     0.1594 7.246E-017 1.69E-014
870          0.4289      1.031  0.0006838     0.1594 4.263E-017 9.94E-015
871          0.4292      1.032  0.0006272     0.1461 7.246E-017 1.688E-014
872          0.4289      1.031  0.0006822     0.1591 2.842E-017 6.627E-015
873          0.4288      1.031  0.0007295     0.1701 4.494E-017 1.048E-014
874          0.4288      1.031  0.0007305     0.1704 5.859E-017 1.366E-014
875          0.4289      1.031  0.0006838     0.1594 5.859E-017 1.366E-014
876          0.4289      1.031  0.0006838     0.1594 5.859E-017 1.366E-014
877          0.4292      1.032  0.0006274     0.1462 4.494E-017 1.047E-014
878          0.4289      1.031  0.0006882     0.1605 5.684E-017 1.325E-014
879          0.4288      1.031  0.0007303     0.1703 7.105E-017 1.657E-014
880          0.4288      1.031  0.0007351     0.1714 4.263E-017 9.942E-015
881          0.4289      1.031  0.0006838     0.1594 5.684E-017 1.325E-014
882          0.4289      1.031  0.0006838     0.1594 5.684E-017 1.325E-014
883          0.4292      1.032  0.0006276     0.1462 4.263E-017 9.933E-015
884          0.4289      1.031  0.0006897     0.1608 5.684E-017 1.325E-014
885          0.4288      1.031  0.0007315     0.1706 4.494E-017 1.048E-014
886          0.4288      1.031   0.000746      0.174 7.105E-017 1.657E-014
887          0.4292      1.032  0.0006278     0.1463 4.263E-017 9.933E-015
888          0.4289      1.031  0.0006906      0.161 7.246E-017 1.69E-014
889          0.4288      1.031  0.0006932     0.1616 4.263E-017 9.941E-015
890          0.4288      1.031  0.0007331      0.171 7.246E-017 1.69E-014
891          0.4292      1.032  0.0006316     0.1471 4.263E-017 9.933E-015
892          0.4288      1.031   0.000692     0.1614 5.859E-017 1.366E-014
893          0.4288      1.031  0.0006961     0.1623 7.246E-017 1.69E-014
894          0.4288      1.031  0.0007392     0.1724 7.105E-017 1.657E-014
895          0.4292      1.032  0.0006407     0.1493 4.263E-017 9.933E-015
896          0.4292      1.032  0.0006366     0.1483 5.684E-017 1.324E-014
897          0.4288      1.031  0.0006923     0.1614 4.263E-017 9.941E-015
898          0.4288      1.031  0.0007012     0.1635 4.263E-017 9.942E-015
899          0.4288      1.031  0.0007503      0.175 5.859E-017 1.366E-014
900          0.4292      1.032  0.0006469     0.1507 5.859E-017 1.365E-014
901          0.4288      1.031  0.0006925     0.1615 5.684E-017 1.325E-014
902          0.4288      1.031  0.0006927     0.1615 7.246E-017 1.69E-014
903          0.4288      1.031  0.0006929     0.1616 4.494E-017 1.048E-014
904          0.4288      1.031  0.0006934     0.1617 5.684E-017 1.325E-014
905          0.4288      1.031  0.0006942     0.1619 4.263E-017 9.941E-015
906          0.4288      1.031   0.000701     0.1635 5.684E-017 1.326E-014
